"Time (MJD)" "Temp./1e3 (K)" "Temp. Err." "Radius/1e15 (cm)" "Radius Err." "Log10(Bol. Lum)" "Log10(Bol. Err)"
-4.128 20.069 2.464 0.525 0.058 43.503 42.936
-3.126 19.177 2.190 0.579 0.061 43.510 42.901
-2.125 20.280 2.100 0.523 0.049 43.518 42.878
-1.123 21.510 2.302 0.531 0.050 43.633 43.016
-0.121 18.637 1.259 0.644 0.040 43.552 42.716
0.880 15.904 0.835 0.769 0.041 43.431 42.450
1.882 14.333 0.632 0.872 0.042 43.359 42.273
2.884 14.032 0.590 0.897 0.041 43.347 42.234
3.885 14.366 0.616 0.872 0.040 43.363 42.266
4.887 14.741 0.647 0.846 0.040 43.382 42.302
5.889 15.104 0.678 0.822 0.039 43.399 42.336
6.890 14.608 0.620 0.846 0.038 43.366 42.268
7.892 14.128 0.567 0.870 0.038 43.333 42.200
8.894 13.676 0.520 0.895 0.038 43.301 42.134
9.895 13.352 0.488 0.910 0.038 43.274 42.081
10.897 12.923 0.449 0.934 0.038 43.239 42.013
11.899 11.582 0.345 1.041 0.039 43.143 41.803
12.900 10.501 0.273 1.153 0.041 43.062 41.609
13.902 10.112 0.221 1.175 0.035 43.012 41.477
14.904 9.983 0.213 1.179 0.035 42.992 41.439
15.905 9.717 0.198 1.202 0.035 42.963 41.372
16.907 9.494 0.184 1.224 0.034 42.938 41.311
17.909 9.286 0.174 1.250 0.035 42.918 41.259
18.910 9.113 0.165 1.270 0.035 42.899 41.214
19.912 8.948 0.157 1.291 0.035 42.881 41.170
20.914 8.790 0.150 1.311 0.035 42.864 41.127
21.915 8.645 0.144 1.331 0.035 42.848 41.087
22.917 8.506 0.138 1.350 0.035 42.832 41.048
23.919 8.377 0.133 1.367 0.035 42.817 41.012
24.920 8.359 0.132 1.356 0.034 42.806 40.998
25.922 8.337 0.131 1.346 0.034 42.795 40.984
26.924 8.294 0.129 1.341 0.033 42.782 40.965
27.925 8.292 0.129 1.326 0.033 42.773 40.957
28.927 8.273 0.128 1.317 0.033 42.763 40.946
29.929 8.151 0.124 1.338 0.033 42.750 40.916
30.930 8.034 0.121 1.359 0.033 42.739 40.888
31.932 7.920 0.118 1.379 0.034 42.727 40.860
32.934 7.805 0.114 1.402 0.034 42.716 40.833
33.935 7.696 0.111 1.426 0.035 42.706 40.807
34.937 7.675 0.111 1.424 0.035 42.700 40.802
35.939 7.646 0.110 1.425 0.035 42.694 40.795
36.940 7.567 0.108 1.440 0.035 42.685 40.775
37.942 7.486 0.106 1.455 0.035 42.676 40.755
38.944 7.442 0.105 1.457 0.035 42.666 40.742
39.945 7.560 0.109 1.398 0.034 42.658 40.760
40.947 7.662 0.113 1.347 0.033 42.649 40.774
41.949 7.512 0.108 1.381 0.034 42.636 40.739
42.951 7.409 0.105 1.401 0.034 42.625 40.713
43.952 7.252 0.101 1.442 0.035 42.612 40.679
44.954 7.157 0.099 1.462 0.036 42.602 40.656
45.956 7.046 0.096 1.490 0.036 42.591 40.632
46.957 6.942 0.094 1.513 0.037 42.578 40.608
47.959 6.838 0.092 1.538 0.038 42.566 40.585
48.961 6.737 0.090 1.563 0.039 42.555 40.563
49.962 6.639 0.088 1.588 0.039 42.543 40.543
50.964 6.546 0.087 1.613 0.040 42.532 40.526
51.966 6.466 0.086 1.634 0.041 42.522 40.512
52.967 6.392 0.085 1.654 0.042 42.512 40.500
53.969 6.321 0.084 1.673 0.043 42.503 40.489
54.971 6.251 0.083 1.693 0.044 42.494 40.480
55.972 6.187 0.082 1.711 0.045 42.485 40.473
56.974 6.199 0.084 1.694 0.045 42.480 40.473
57.976 6.227 0.086 1.669 0.045 42.475 40.475
58.977 6.259 0.088 1.642 0.045 42.470 40.478
59.979 6.293 0.091 1.615 0.045 42.464 40.481
60.981 6.322 0.093 1.591 0.045 42.460 40.485
61.982 6.330 0.094 1.580 0.045 42.456 40.488
62.984 6.365 0.097 1.550 0.045 42.449 40.490
63.986 6.483 0.101 1.454 0.042 42.425 40.489
64.987 6.635 0.108 1.346 0.040 42.399 40.494
65.989 6.822 0.116 1.235 0.038 42.372 40.507
66.991 7.050 0.127 1.122 0.035 42.345 40.531
67.992 7.109 0.132 1.075 0.034 42.323 40.528
68.994 6.503 0.111 1.272 0.040 42.314 40.422
69.996 6.043 0.096 1.476 0.046 42.316 40.380
70.997 5.755 0.088 1.653 0.052 42.330 40.394
71.999 5.551 0.082 1.800 0.057 42.341 40.420
73.001 5.522 0.082 1.812 0.058 42.337 40.425
74.002 5.492 0.082 1.822 0.059 42.333 40.429
75.004 5.469 0.083 1.826 0.060 42.327 40.432
76.006 5.493 0.084 1.786 0.059 42.316 40.423
77.007 5.523 0.086 1.744 0.058 42.305 40.414
78.009 5.558 0.088 1.693 0.057 42.290 40.401
79.011 5.591 0.092 1.634 0.057 42.269 40.383
80.012 5.597 0.092 1.623 0.056 42.266 40.385
81.014 5.686 0.096 1.542 0.054 42.248 40.368
82.016 5.459 0.104 1.678 0.071 42.251 40.443
83.017 5.513 0.107 1.620 0.069 42.238 40.428
84.019 5.560 0.110 1.568 0.068 42.224 40.413
85.021 5.570 0.112 1.534 0.067 42.208 40.402
86.022 5.579 0.114 1.503 0.066 42.193 40.393
87.024 5.616 0.118 1.445 0.065 42.170 40.370
88.026 5.637 0.121 1.409 0.065 42.155 40.358
89.027 5.651 0.123 1.380 0.064 42.141 40.349
90.029 5.247 0.124 1.575 0.083 42.127 40.402
91.031 5.256 0.126 1.540 0.082 42.111 40.391
92.032 5.263 0.128 1.508 0.081 42.094 40.379
93.034 4.387 0.182 2.420 0.298 42.189 41.116
94.036 4.497 0.194 2.225 0.279 42.159 41.072
95.037 4.606 0.207 2.055 0.262 42.132 41.031
96.039 4.692 0.218 1.936 0.250 42.112 41.001
97.041 4.781 0.230 1.823 0.240 42.093 40.971
98.042 4.874 0.242 1.717 0.229 42.074 40.940
99.044 4.970 0.256 1.617 0.219 42.056 40.907
100.046 5.071 0.271 1.522 0.210 42.038 40.874
101.047 5.176 0.286 1.433 0.201 42.021 40.840
102.049 5.285 0.303 1.349 0.192 42.005 40.805
103.051 5.400 0.322 1.269 0.184 41.989 40.768
104.052 5.520 0.342 1.194 0.176 41.975 40.729
105.054 5.646 0.363 1.123 0.168 41.961 40.689
106.056 5.778 0.386 1.057 0.161 41.948 40.648
107.057 5.916 0.412 0.993 0.154 41.935 40.605
108.059 6.062 0.440 0.934 0.148 41.924 40.563
109.061 6.216 0.470 0.878 0.141 41.914 40.524
110.062 6.379 0.503 0.825 0.135 41.904 40.492
111.064 6.551 0.540 0.775 0.130 41.896 40.475
112.066 6.734 0.581 0.727 0.124 41.889 40.477
113.067 6.928 0.626 0.682 0.119 41.883 40.503
114.069 7.135 0.676 0.640 0.114 41.879 40.548
115.071 7.356 0.732 0.600 0.109 41.876 40.608
116.072 7.592 0.794 0.563 0.105 41.875 40.676
117.074 7.846 0.865 0.527 0.100 41.875 40.747
118.076 8.120 0.945 0.493 0.096 41.877 40.820
119.077 8.415 1.035 0.461 0.092 41.881 40.894
120.079 8.736 1.139 0.431 0.089 41.887 40.968
121.081 9.086 1.259 0.402 0.085 41.895 41.043
122.082 9.468 1.398 0.375 0.082 41.906 41.120
123.084 9.890 1.561 0.350 0.079 41.920 41.198
124.086 10.356 1.752 0.325 0.076 41.938 41.278
125.087 10.875 1.981 0.302 0.073 41.959 41.362
126.089 11.457 2.256 0.280 0.070 41.984 41.450
127.091 12.115 2.592 0.259 0.068 42.013 41.543
128.092 12.867 3.008 0.239 0.065 42.049 41.643
129.094 13.734 3.530 0.220 0.063 42.090 41.750
130.096 14.748 4.200 0.202 0.062 42.140 41.868
131.097 15.950 5.078 0.185 0.060 42.198 41.997
132.099 17.338 6.210 0.169 0.059 42.264 42.134
133.101 18.009 6.861 0.162 0.058 42.292 42.198
134.102 19.154 7.990 0.151 0.058 42.342 42.300
135.104 20.728 9.669 0.140 0.057 42.411 42.431
136.106 22.771 12.092 0.128 0.057 42.497 42.589
137.108 25.387 15.610 0.116 0.057 42.601 42.771
138.109 32.602 27.409 0.095 0.058 42.863 43.195
139.111 32.975 1.787 0.095 0.000 42.883 42.219
140.113 32.975 1.802 0.095 0.000 42.883 42.223
141.114 32.955 1.818 0.095 0.000 42.882 42.226
142.116 32.935 1.833 0.095 0.000 42.881 42.229
143.118 32.915 1.848 0.095 0.000 42.880 42.231
144.119 32.895 1.863 0.095 0.000 42.879 42.234
145.121 32.875 1.879 0.095 0.000 42.878 42.237
146.123 32.855 1.894 0.095 0.000 42.877 42.240
147.124 32.836 1.909 0.095 0.000 42.876 42.242
148.126 32.816 1.924 0.095 0.000 42.875 42.245
149.128 32.796 1.939 0.095 0.000 42.874 42.248
150.129 32.776 1.954 0.095 0.000 42.873 42.250
151.131 32.756 1.969 0.095 0.000 42.872 42.253
152.133 32.737 1.984 0.095 0.000 42.871 42.255
153.134 32.717 1.999 0.095 0.000 42.870 42.258
154.136 32.697 2.014 0.095 0.000 42.868 42.260
155.138 32.677 2.029 0.095 0.000 42.867 42.263
156.139 32.658 2.044 0.095 0.000 42.866 42.265
157.141 32.638 2.059 0.095 0.000 42.865 42.267
158.143 32.618 2.073 0.095 0.000 42.864 42.270
159.144 32.599 2.088 0.095 0.000 42.863 42.272
160.146 32.579 2.103 0.095 0.000 42.862 42.274
161.148 32.559 2.118 0.095 0.000 42.861 42.276
162.149 32.540 2.132 0.095 0.000 42.860 42.279
163.151 32.520 2.147 0.095 0.000 42.859 42.281
164.153 32.501 2.161 0.095 0.000 42.858 42.283
165.154 32.481 2.176 0.095 0.000 42.857 42.285
166.156 32.462 2.190 0.095 0.000 42.856 42.287
167.158 32.442 2.205 0.095 0.000 42.855 42.289
168.159 32.423 2.219 0.095 0.000 42.854 42.291
169.161 32.403 2.234 0.095 0.000 42.853 42.293
170.163 32.384 2.248 0.095 0.000 42.852 42.295
171.164 32.364 2.262 0.095 0.000 42.851 42.297
172.166 32.345 2.276 0.095 0.000 42.850 42.299
173.168 32.325 2.290 0.095 0.000 42.849 42.301
174.169 32.306 2.305 0.095 0.000 42.848 42.303
175.171 32.287 2.319 0.095 0.000 42.847 42.305
176.173 32.267 2.333 0.095 0.000 42.845 42.307
177.174 32.248 2.347 0.095 0.000 42.844 42.308
178.176 32.229 2.360 0.095 0.000 42.843 42.310
179.178 32.209 2.374 0.095 0.000 42.842 42.312
180.179 32.190 2.388 0.095 0.000 42.841 42.314
181.181 32.171 2.402 0.095 0.000 42.840 42.315
182.183 32.151 2.416 0.095 0.000 42.839 42.317
183.184 32.132 2.429 0.095 0.000 42.838 42.319
184.186 32.113 2.443 0.095 0.000 42.837 42.320
185.188 32.094 2.456 0.095 0.000 42.836 42.322
186.189 32.074 2.470 0.095 0.000 42.835 42.324
187.191 32.055 2.483 0.095 0.000 42.834 42.325
188.193 32.036 2.497 0.095 0.000 42.833 42.327
189.194 32.017 2.510 0.095 0.000 42.832 42.328
190.196 31.998 2.523 0.095 0.000 42.831 42.330
191.198 31.979 2.537 0.095 0.000 42.830 42.331
192.199 31.959 2.550 0.095 0.000 42.829 42.333
193.201 31.940 2.563 0.095 0.000 42.828 42.334
194.203 31.921 2.576 0.095 0.000 42.827 42.336
195.204 31.902 2.589 0.095 0.000 42.826 42.337
196.206 31.883 2.602 0.095 0.000 42.825 42.338
197.208 31.864 2.615 0.095 0.000 42.824 42.340
198.209 31.845 2.627 0.095 0.000 42.823 42.341
199.211 31.826 2.640 0.095 0.000 42.822 42.342
200.213 31.807 2.653 0.095 0.000 42.821 42.344
201.214 31.788 2.665 0.095 0.000 42.820 42.345
202.216 31.769 2.678 0.095 0.000 42.818 42.346
203.218 31.750 2.691 0.095 0.000 42.817 42.348
204.219 31.731 2.703 0.095 0.000 42.816 42.349
205.221 31.712 2.715 0.095 0.000 42.815 42.350
206.223 31.694 2.728 0.095 0.000 42.814 42.351
207.224 31.675 2.740 0.095 0.000 42.813 42.352
208.226 31.656 2.752 0.095 0.000 42.812 42.354
209.228 31.637 2.764 0.095 0.000 42.811 42.355
210.229 31.618 2.776 0.095 0.000 42.810 42.356
211.231 31.599 2.788 0.095 0.000 42.809 42.357
212.233 31.581 2.800 0.095 0.000 42.808 42.358
213.234 31.562 2.812 0.095 0.000 42.807 42.359
214.236 31.543 2.824 0.095 0.000 42.806 42.360
215.238 31.524 2.836 0.095 0.000 42.805 42.361
216.239 31.506 2.847 0.095 0.000 42.804 42.362
217.241 31.487 2.859 0.095 0.000 42.803 42.363
218.243 31.468 2.871 0.095 0.000 42.802 42.364
219.244 31.449 2.882 0.095 0.000 42.801 42.365
220.246 31.431 2.893 0.095 0.000 42.800 42.366
221.248 31.412 2.905 0.095 0.000 42.799 42.367
222.249 31.393 2.916 0.095 0.000 42.798 42.368
223.251 31.375 2.927 0.095 0.000 42.797 42.369
224.253 31.356 2.938 0.095 0.000 42.796 42.370
225.254 31.338 2.950 0.095 0.000 42.795 42.370
226.256 31.319 2.961 0.095 0.000 42.794 42.371
227.258 31.301 2.972 0.095 0.000 42.793 42.372
228.260 31.282 2.982 0.095 0.000 42.792 42.373
229.261 31.263 2.993 0.095 0.000 42.791 42.374
230.263 31.245 3.004 0.095 0.000 42.790 42.375
231.265 31.226 3.015 0.095 0.000 42.789 42.375
232.266 31.208 3.025 0.095 0.000 42.788 42.376
233.268 31.189 3.036 0.095 0.000 42.786 42.377
234.270 31.171 3.046 0.095 0.000 42.785 42.378
235.271 31.153 3.057 0.095 0.000 42.784 42.378
236.273 31.134 3.067 0.095 0.000 42.783 42.379
237.275 31.116 3.077 0.095 0.000 42.782 42.380
238.276 31.097 3.087 0.095 0.000 42.781 42.380
239.278 31.079 3.098 0.095 0.000 42.780 42.381
240.280 31.061 3.108 0.095 0.000 42.779 42.382
241.281 31.042 3.118 0.095 0.000 42.778 42.382
242.283 31.024 3.128 0.095 0.000 42.777 42.383
243.285 31.006 3.137 0.095 0.000 42.776 42.383
244.286 30.987 3.147 0.095 0.000 42.775 42.384
245.288 30.969 3.157 0.095 0.000 42.774 42.385
246.290 30.951 3.166 0.095 0.000 42.773 42.385
247.291 30.932 3.176 0.095 0.000 42.772 42.386
248.293 30.914 3.186 0.095 0.000 42.771 42.386
249.295 30.896 3.195 0.095 0.000 42.770 42.387
250.296 30.878 3.204 0.095 0.000 42.769 42.387
251.298 30.860 3.214 0.095 0.000 42.768 42.388
252.300 30.841 3.223 0.095 0.000 42.767 42.388
253.301 30.823 3.232 0.095 0.000 42.766 42.389
254.303 30.805 3.241 0.095 0.000 42.765 42.389
255.305 30.787 3.250 0.095 0.000 42.764 42.389
256.306 30.769 3.259 0.095 0.000 42.763 42.390
257.308 30.751 3.268 0.095 0.000 42.762 42.390
258.310 30.733 3.276 0.095 0.000 42.761 42.391
259.311 30.715 3.285 0.095 0.000 42.760 42.391
260.313 30.697 3.294 0.095 0.000 42.759 42.391
261.315 30.678 3.302 0.095 0.000 42.758 42.392
262.316 30.660 3.311 0.095 0.000 42.757 42.392
263.318 30.642 3.319 0.095 0.000 42.756 42.393
264.320 30.624 3.328 0.095 0.000 42.755 42.393
265.321 30.606 3.336 0.095 0.000 42.754 42.393
266.323 30.588 3.344 0.095 0.000 42.753 42.393
267.325 30.571 3.352 0.095 0.000 42.752 42.394
268.326 30.553 3.360 0.095 0.000 42.751 42.394
269.328 30.535 3.368 0.095 0.000 42.750 42.394
270.330 30.517 3.376 0.095 0.000 42.749 42.395
271.331 30.499 3.384 0.095 0.000 42.748 42.395
272.333 30.481 3.392 0.095 0.000 42.747 42.395
273.335 30.463 3.399 0.095 0.000 42.746 42.395
274.336 30.445 3.407 0.095 0.000 42.745 42.395
275.338 30.427 3.414 0.095 0.000 42.744 42.396
276.340 30.410 3.422 0.095 0.000 42.742 42.396
277.341 30.392 3.429 0.095 0.000 42.741 42.396
278.343 30.374 3.437 0.095 0.000 42.740 42.396
279.345 30.356 3.444 0.095 0.000 42.739 42.396
280.346 30.338 3.451 0.095 0.000 42.738 42.396
281.348 30.321 3.458 0.095 0.000 42.737 42.397
282.350 30.303 3.465 0.095 0.000 42.736 42.397
283.351 30.285 3.472 0.095 0.000 42.735 42.397
284.353 30.268 3.479 0.095 0.000 42.734 42.397
285.355 30.250 3.486 0.095 0.000 42.733 42.397
286.356 30.232 3.492 0.095 0.000 42.732 42.397
287.358 30.214 3.499 0.095 0.000 42.731 42.397
288.360 30.197 3.506 0.095 0.000 42.730 42.397
289.361 30.179 3.512 0.095 0.000 42.729 42.397
290.363 30.162 3.519 0.095 0.000 42.728 42.397
291.365 30.144 3.525 0.095 0.000 42.727 42.397
292.366 30.126 3.531 0.095 0.000 42.726 42.397
293.368 30.109 3.537 0.095 0.000 42.725 42.397
294.370 30.091 3.544 0.095 0.000 42.724 42.397
295.371 30.074 3.550 0.095 0.000 42.723 42.397
296.373 30.056 3.556 0.095 0.000 42.722 42.397
297.375 30.039 3.562 0.095 0.000 42.721 42.397
298.376 30.021 3.567 0.095 0.000 42.720 42.397
299.378 30.004 3.573 0.095 0.000 42.719 42.397
300.380 29.986 3.579 0.095 0.000 42.718 42.397
301.381 29.969 3.584 0.095 0.000 42.717 42.397
302.383 29.951 3.590 0.095 0.000 42.716 42.397
303.385 29.934 3.596 0.095 0.000 42.715 42.397
304.386 29.916 3.601 0.095 0.000 42.714 42.397
305.388 29.899 3.606 0.095 0.000 42.713 42.397
306.390 29.882 3.612 0.095 0.000 42.712 42.396
307.391 29.864 3.617 0.095 0.000 42.711 42.396
308.393 29.847 3.622 0.095 0.000 42.710 42.396
309.395 29.830 3.627 0.095 0.000 42.709 42.396
310.396 29.812 3.632 0.095 0.000 42.708 42.396
311.398 29.795 3.637 0.095 0.000 42.707 42.396
312.400 29.778 3.642 0.095 0.000 42.706 42.395
313.401 29.760 3.646 0.095 0.000 42.705 42.395
314.403 29.743 3.651 0.095 0.000 42.704 42.395
315.405 29.726 3.656 0.095 0.000 42.703 42.395
316.406 29.709 3.660 0.095 0.000 42.702 42.395
317.408 29.691 3.665 0.095 0.000 42.701 42.394
318.410 29.674 3.669 0.095 0.000 42.700 42.394
319.411 29.657 3.673 0.095 0.000 42.699 42.394
320.413 29.640 3.678 0.095 0.000 42.698 42.394
321.415 29.623 3.682 0.095 0.000 42.697 42.393
322.417 29.605 3.686 0.095 0.000 42.696 42.393
323.418 29.588 3.690 0.095 0.000 42.695 42.393
324.420 29.571 3.694 0.095 0.000 42.694 42.393
325.422 29.554 3.698 0.095 0.000 42.693 42.392
326.423 29.537 3.702 0.095 0.000 42.692 42.392
327.425 29.520 3.705 0.095 0.000 42.691 42.392
328.427 29.503 3.709 0.095 0.000 42.690 42.391
329.428 29.486 3.713 0.095 0.000 42.689 42.391
330.430 29.469 3.716 0.095 0.000 42.688 42.391
331.432 29.452 3.720 0.095 0.000 42.687 42.390
332.433 29.435 3.723 0.095 0.000 42.686 42.390
333.435 29.418 3.727 0.095 0.000 42.685 42.390
334.437 29.401 3.730 0.095 0.000 42.684 42.389
335.438 29.384 3.733 0.095 0.000 42.683 42.389
336.440 29.367 3.736 0.095 0.000 42.682 42.388
337.442 29.350 3.739 0.095 0.000 42.681 42.388
338.443 29.333 3.742 0.095 0.000 42.680 42.388
339.445 29.316 3.745 0.095 0.000 42.679 42.387
340.447 29.299 3.748 0.095 0.000 42.678 42.387
341.448 29.282 3.751 0.095 0.000 42.677 42.386
342.450 29.265 3.753 0.095 0.000 42.676 42.386
343.452 29.248 3.756 0.095 0.000 42.675 42.386
344.453 29.231 3.759 0.095 0.000 42.674 42.385
345.455 29.215 3.761 0.095 0.000 42.673 42.385
346.457 29.181 3.766 0.095 0.000 42.671 42.384
347.458 29.164 3.768 0.095 0.000 42.670 42.383
348.460 29.147 3.770 0.095 0.000 42.669 42.383
349.462 29.131 3.773 0.095 0.000 42.668 42.382
350.463 29.114 3.775 0.095 0.000 42.667 42.382
351.465 29.097 3.777 0.095 0.000 42.666 42.381
352.467 29.080 3.779 0.095 0.000 42.665 42.381
353.468 29.064 3.781 0.095 0.000 42.664 42.380
354.470 29.047 3.782 0.095 0.000 42.663 42.380
355.472 29.030 3.784 0.095 0.000 42.662 42.379
356.473 29.014 3.786 0.095 0.000 42.661 42.378
357.475 28.997 3.788 0.095 0.000 42.660 42.378
358.477 28.980 3.789 0.095 0.000 42.659 42.377
359.478 28.964 3.791 0.095 0.000 42.658 42.377
360.480 28.947 3.792 0.095 0.000 42.657 42.376
361.482 28.931 3.793 0.095 0.000 42.656 42.376
362.483 28.914 3.795 0.095 0.000 42.655 42.375
363.485 28.897 3.796 0.095 0.000 42.654 42.374
364.487 28.881 3.797 0.095 0.000 42.653 42.374
365.488 28.864 3.798 0.095 0.000 42.652 42.373
366.490 28.848 3.799 0.095 0.000 42.651 42.373
367.492 28.831 3.800 0.095 0.000 42.650 42.372
368.493 28.815 3.801 0.095 0.000 42.649 42.371
369.495 28.798 3.802 0.095 0.000 42.648 42.371
370.497 28.782 3.803 0.095 0.000 42.647 42.370
371.498 28.765 3.803 0.095 0.000 42.646 42.369
372.500 28.749 3.804 0.095 0.000 42.645 42.369
373.502 28.732 3.805 0.095 0.000 42.644 42.368
374.503 28.716 3.805 0.095 0.000 42.643 42.367
375.505 28.699 3.806 0.095 0.000 42.642 42.367
376.507 28.683 3.806 0.095 0.000 42.641 42.366
377.508 28.667 3.806 0.095 0.000 42.640 42.365
378.510 28.650 3.807 0.095 0.000 42.639 42.364
379.512 28.634 3.807 0.095 0.000 42.638 42.364
380.513 28.618 3.807 0.095 0.000 42.637 42.363
381.515 28.601 3.807 0.095 0.000 42.636 42.362
382.517 28.585 3.807 0.095 0.000 42.635 42.362
383.518 28.569 3.807 0.095 0.000 42.634 42.361
384.520 28.552 3.807 0.095 0.000 42.633 42.360
385.522 28.536 3.807 0.095 0.000 42.632 42.359
386.523 28.520 3.807 0.095 0.000 42.631 42.358
387.525 28.504 3.806 0.095 0.000 42.630 42.358
388.527 28.487 3.806 0.095 0.000 42.629 42.357
389.528 28.471 3.806 0.095 0.000 42.628 42.356
390.530 28.455 3.805 0.095 0.000 42.627 42.355
391.532 28.439 3.805 0.095 0.000 42.626 42.355
392.533 28.422 3.804 0.095 0.000 42.625 42.354
393.535 28.406 3.803 0.095 0.000 42.624 42.353
394.537 28.390 3.803 0.095 0.000 42.623 42.352
395.538 28.374 3.802 0.095 0.000 42.622 42.351
396.540 28.358 3.801 0.095 0.000 42.621 42.350
397.542 28.342 3.800 0.095 0.000 42.620 42.350
398.543 28.326 3.799 0.095 0.000 42.619 42.349
399.545 28.310 3.798 0.095 0.000 42.618 42.348
400.547 28.293 3.797 0.095 0.000 42.617 42.347
401.548 28.277 3.796 0.095 0.000 42.616 42.346
402.550 28.261 3.795 0.095 0.000 42.615 42.345
403.552 28.245 3.794 0.095 0.000 42.614 42.344
404.553 28.229 3.793 0.095 0.000 42.613 42.344
405.555 28.213 3.791 0.095 0.000 42.612 42.343
406.557 28.197 3.790 0.095 0.000 42.611 42.342
407.558 28.181 3.788 0.095 0.000 42.610 42.341
408.560 28.165 3.787 0.095 0.000 42.609 42.340
409.562 28.149 3.785 0.095 0.000 42.608 42.339
410.563 28.133 3.784 0.095 0.000 42.607 42.338
411.565 28.117 3.782 0.095 0.000 42.606 42.337
412.567 28.101 3.781 0.095 0.000 42.605 42.336
413.568 28.086 3.779 0.095 0.000 42.604 42.335
414.570 28.070 3.777 0.095 0.000 42.603 42.334
415.572 28.054 3.775 0.095 0.000 42.602 42.333
416.574 28.038 3.773 0.095 0.000 42.601 42.332
417.575 28.022 3.771 0.095 0.000 42.600 42.331
418.577 28.006 3.769 0.095 0.000 42.599 42.331
419.579 27.990 3.767 0.095 0.000 42.598 42.330
420.580 27.975 3.765 0.095 0.000 42.598 42.329
421.582 27.959 3.763 0.095 0.000 42.597 42.328
422.584 27.943 3.761 0.095 0.000 42.596 42.327
